File: Raw Electrochem Data/Oligomer 1/Blank electrolyte/CV_100mVps.txt
Potential - Start -0.2 V, Upper Vertex 1.5 V, Lower Vertex -0.2 V, Stop -0.19 V; Scan - # end cross 5, Rate 0.1 Vps, Step 0.01 V
Scan	Index	Time (s)	Potential applied (V)	WE(1).Potential (V)	WE(1).Current (A)	WE(1).Power (W)	WE(1).Resistance (Ω)	WE(1).Charge (C)
1	1	74.4017	-0.189972	-0.189911	-1.58081e-07	3.00213e-08	1201351.375	0
1	7	75.006	-0.129547	-0.129425	-3.69263e-08	4.77918e-09	3504958.75	-5.35226e-08
1	13	75.6102	-0.0691223	-0.0690613	5.31006e-08	-3.66719e-09	-1300574.75	-5.06183e-08
1	19	76.2145	-0.00869751	-0.00860596	3.59192e-07	-3.09119e-09	-23959.2	4.92814e-08
1	25	76.8187	0.0517273	0.0518188	1.43494e-06	7.43568e-08	36112.3	5.61934e-07
1	31	77.423	0.112152	0.112152	1.73981e-06	1.95123e-07	64462.375	1.5993e-06
1	37	78.0272	0.172577	0.172607	1.38062e-06	2.38304e-07	125022	2.53817e-06
1	43	78.6315	0.233002	0.232971	1.17096e-06	2.728e-07	198958	3.30191e-06
1	49	79.2357	0.293427	0.293396	1.05682e-06	3.10068e-07	277621	3.97218e-06
1	55	79.84	0.353851	0.353821	9.82666e-07	3.47688e-07	360062.125	4.58724e-06
1	61	80.4442	0.414276	0.414276	9.34753e-07	3.87246e-07	443193	5.1656e-06
1	67	81.0484	0.474701	0.47464	9.05457e-07	4.29766e-07	524200	5.72087e-06
1	73	81.6527	0.535126	0.535126	8.86841e-07	4.74571e-07	603406.75	6.2618e-06
1	79	82.2569	0.595551	0.59549	8.74023e-07	5.20472e-07	681320	6.79333e-06
1	85	82.8612	0.655975	0.655975	8.70667e-07	5.71136e-07	753417	7.31994e-06
1	91	83.4654	0.7164	0.716278	8.79211e-07	6.2976e-07	814682.375	7.8481e-06
1	97	84.0697	0.776825	0.776978	8.96301e-07	6.96406e-07	866871	8.38412e-06
1	103	84.6739	0.83725	0.837097	9.17664e-07	7.68174e-07	912204.875	8.93189e-06
1	109	85.2782	0.897675	0.897827	9.46655e-07	8.49933e-07	948420	9.495e-06
1	115	85.8824	0.958099	0.957642	9.78699e-07	9.37243e-07	978485	1.00769e-05
1	121	86.4867	1.01852	1.01837	1.00189e-06	1.0203e-06	1016448.375	1.06759e-05
1	127	87.0909	1.07895	1.07941	1.01166e-06	1.09199e-06	1066968.375	1.12845e-05
1	133	87.6952	1.13937	1.13983	1.02356e-06	1.16669e-06	1113595.75	1.18988e-05
1	139	88.2994	1.1998	1.19965	1.04828e-06	1.25756e-06	1144395.875	1.25246e-05
1	145	88.9037	1.26022	1.26007	1.07697e-06	1.35705e-06	1170019.875	1.31666e-05
1	151	89.5079	1.32065	1.32019	1.10535e-06	1.45927e-06	1194367.75	1.38255e-05
1	157	90.1122	1.38107	1.38092	1.14288e-06	1.57823e-06	1208277.625	1.45041e-05
1	163	90.7164	1.4415	1.44135	1.19324e-06	1.71987e-06	1207928.375	1.52097e-05
1	169	91.3207	1.50192	1.50146	1.2439e-06	1.86767e-06	1207065.75	1.59465e-05
1	175	91.9249	1.4415	1.44165	9.18274e-07	1.32383e-06	1569956.875	1.65774e-05
1	181	92.5292	1.38107	1.38092	7.86438e-07	1.08601e-06	1755917.75	1.70888e-05
1	187	93.1334	1.32065	1.3208	7.01599e-07	9.26673e-07	1882557.625	1.75371e-05
1	193	93.7377	1.26022	1.26007	6.32935e-07	7.97542e-07	1990839.125	1.79398e-05
1	199	94.3419	1.1998	1.19965	5.69763e-07	6.83514e-07	2105516.75	1.83025e-05
1	205	94.9462	1.13937	1.13922	5.16052e-07	5.87898e-07	2207569.5	1.86301e-05
1	211	95.5504	1.07895	1.0791	4.67834e-07	5.04841e-07	2306588.5	1.89275e-05
1	217	96.1546	1.01852	1.01837	4.13208e-07	4.20799e-07	2464549.5	1.91938e-05
1	223	96.7589	0.958099	0.957947	3.61633e-07	3.46425e-07	2648945.25	1.94273e-05
1	229	97.3631	0.897675	0.897217	3.21655e-07	2.88595e-07	2789373.75	1.96331e-05
1	235	97.9674	0.83725	0.837402	2.96631e-07	2.48399e-07	2823045.5	1.98196e-05
1	241	98.5716	0.776825	0.776978	2.771e-07	2.153e-07	2803964.75	1.99928e-05
1	247	99.1759	0.7164	0.716309	2.61536e-07	1.8734e-07	2738856.5	2.01552e-05
1	253	99.7801	0.655975	0.655914	2.50549e-07	1.64339e-07	2617905	2.03098e-05
1	259	100.384	0.595551	0.59552	2.45361e-07	1.46118e-07	2427114.5	2.04596e-05
1	265	100.989	0.535126	0.535126	2.37732e-07	1.27216e-07	2250962.75	2.06056e-05
1	271	101.593	0.474701	0.474548	2.27661e-07	1.08036e-07	2084450.375	2.0746e-05
1	277	102.197	0.414276	0.414246	2.16675e-07	8.97566e-08	1911831	2.088e-05
1	283	102.801	0.353851	0.353851	2.09961e-07	7.4295e-08	1685319.875	2.1009e-05
1	289	103.406	0.293427	0.293396	1.98059e-07	5.81097e-08	1481355.875	2.11329e-05
1	295	104.01	0.233002	0.233002	1.77612e-07	4.1384e-08	1311855.625	2.1247e-05
1	301	104.614	0.172577	0.172546	1.34583e-07	2.32217e-08	1282086.125	2.13433e-05
1	307	105.218	0.112152	0.112244	-7.65991e-08	-8.59777e-09	-1465338.625	2.13793e-05
1	313	105.823	0.0517273	0.0517883	-1.03638e-06	-5.36722e-08	-49970.6	2.10902e-05
1	319	106.427	-0.00869751	-0.00865173	-1.64642e-06	1.42444e-08	5254.87	2.01965e-05
1	325	107.031	-0.0691223	-0.0690918	-1.27869e-06	8.83467e-08	54033.4	1.93088e-05
1	331	107.635	-0.129547	-0.129456	-1.03943e-06	1.3456e-07	124545	1.86171e-05
1	337	108.24	-0.189972	-0.189819	-9.34448e-07	1.77376e-07	203135	1.80254e-05
2	343	108.844	-0.149689	-0.149506	-5.41382e-07	8.09396e-08	276156	1.7582e-05
2	349	109.448	-0.0892639	-0.0891724	-3.26233e-07	2.9091e-08	273340	1.73237e-05
2	355	110.052	-0.0288391	-0.0287689	-5.52368e-08	1.5891e-09	520828.75	1.71964e-05
2	361	110.657	0.0315857	0.0316528	8.6731e-07	2.74528e-08	36495.4	1.73935e-05
2	367	111.261	0.0920105	0.092041	1.65924e-06	1.52718e-07	55471.8	1.82332e-05
2	373	111.865	0.152435	0.152466	1.35376e-06	2.06402e-07	112624	1.9155e-05
2	379	112.469	0.21286	0.212799	1.11481e-06	2.3723e-07	190884	1.98928e-05
2	385	113.074	0.273285	0.273285	9.8877e-07	2.70216e-07	276388.875	2.05248e-05
2	391	113.678	0.33371	0.333679	9.15833e-07	3.05594e-07	364345	2.10986e-05
2	397	114.282	0.394135	0.394073	8.74329e-07	3.4455e-07	450716	2.16384e-05
2	403	114.886	0.454559	0.45459	8.48694e-07	3.85808e-07	535635	2.21584e-05
2	409	115.491	0.514984	0.514954	8.28552e-07	4.26666e-07	621510.125	2.26646e-05
2	415	116.095	0.575409	0.575378	8.18481e-07	4.70937e-07	702982.875	2.31616e-05
2	421	116.699	0.635834	0.635712	8.20618e-07	5.21676e-07	774674.625	2.36564e-05
2	427	117.303	0.696259	0.696167	8.31299e-07	5.78723e-07	837445	2.41553e-05
2	433	117.908	0.756683	0.756531	8.48083e-07	6.41601e-07	892048	2.46622e-05
2	439	118.512	0.817108	0.81665	8.73718e-07	7.13522e-07	934684	2.51818e-05
2	445	119.116	0.877533	0.87738	9.07593e-07	7.96304e-07	966711.5	2.57198e-05
2	451	119.72	0.937958	0.9375	9.45129e-07	8.86059e-07	991928	2.62796e-05
2	457	120.325	0.998383	0.99823	9.77478e-07	9.75748e-07	1.02123e+06	2.68606e-05
2	463	120.929	1.05881	1.05835	9.99756e-07	1.05809e-06	1058608.125	2.74584e-05
2	469	121.533	1.11923	1.11908	1.01166e-06	1.13213e-06	1106184	2.80666e-05
2	475	122.137	1.17966	1.1792	1.02356e-06	1.20698e-06	1152057.25	2.8681e-05
2	481	122.742	1.24008	1.23993	1.04279e-06	1.29298e-06	1189054.75	2.93048e-05
2	487	123.346	1.30051	1.30066	1.06598e-06	1.38648e-06	1220154.625	2.99417e-05
2	493	123.95	1.36093	1.36108	1.09406e-06	1.4891e-06	1244072.5	3.05941e-05
2	499	124.554	1.42136	1.4212	1.13434e-06	1.61213e-06	1252892.125	3.12667e-05
2	505	125.159	1.48178	1.48163	1.18103e-06	1.74985e-06	1254522	3.19662e-05
2	511	125.763	1.46164	1.46179	9.40552e-07	1.37489e-06	1554185.625	3.26267e-05
2	517	126.367	1.40121	1.40137	7.79114e-07	1.09182e-06	1798668.25	3.31409e-05
2	523	126.971	1.34079	1.34064	6.79016e-07	9.10314e-07	1974382.125	3.35794e-05
2	529	127.576	1.28036	1.28021	6.00281e-07	7.68487e-07	2132689.25	3.39649e-05
2	535	128.18	1.21994	1.21979	5.33447e-07	6.50692e-07	2286613.5	3.43068e-05
2	541	128.784	1.15952	1.15936	4.81567e-07	5.58311e-07	2407477.75	3.4613e-05
2	547	129.388	1.09909	1.09955	4.3396e-07	4.7716e-07	2533755.5	3.48898e-05
2	553	129.993	1.03867	1.03851	3.74756e-07	3.89189e-07	2771172.75	3.51344e-05
2	559	130.597	0.978241	0.978088	3.2135e-07	3.14309e-07	3043684.75	3.53438e-05
2	565	131.201	0.917816	0.917969	2.8595e-07	2.62493e-07	3210245.5	3.55267e-05
2	571	131.805	0.857391	0.857239	2.61841e-07	2.2446e-07	3273892.75	3.56919e-05
2	577	132.41	0.796967	0.796814	2.4353e-07	1.94048e-07	3271929.75	3.58444e-05
2	583	133.014	0.736542	0.736359	2.30408e-07	1.69663e-07	3195894.25	3.59875e-05
2	589	133.618	0.676117	0.675995	2.24609e-07	1.51835e-07	3009646.75	3.61247e-05
2	595	134.222	0.615692	0.615662	2.19421e-07	1.35089e-07	2805841.5	3.62588e-05
2	601	134.827	0.555267	0.555237	2.12097e-07	1.17764e-07	2617841.75	3.63895e-05
2	607	135.431	0.494843	0.494812	2.04773e-07	1.01324e-07	2416393.5	3.65156e-05
2	613	136.035	0.434418	0.434357	1.98364e-07	8.61608e-08	2189692.5	3.66373e-05
2	619	136.639	0.373993	0.373932	1.9043e-07	7.12077e-08	1963621.75	3.67546e-05
2	625	137.244	0.313568	0.313599	1.79749e-07	5.63689e-08	1744652	3.68669e-05
2	631	137.848	0.253143	0.253113	1.62354e-07	4.10938e-08	1559022.5	3.69708e-05
2	637	138.452	0.192719	0.192719	1.33362e-07	2.57013e-08	1445080.125	3.70611e-05
2	643	139.056	0.132294	0.132324	2.16675e-08	2.86713e-09	6107042.5	3.7117e-05
2	649	139.661	0.0718689	0.0719604	-6.22559e-07	-4.47996e-08	-115588	3.69826e-05
2	655	140.265	0.0114441	0.0115662	-1.67511e-06	-1.93746e-08	-6904.72	3.62455e-05
2	661	140.869	-0.0489807	-0.0488312	-1.45081e-06	7.08445e-08	33658	3.52664e-05
2	667	141.473	-0.109406	-0.109344	-1.14594e-06	1.25302e-07	95419.4	3.44922e-05
2	673	142.077	-0.16983	-0.169678	-1.00677e-06	1.70827e-07	168536	3.38478e-05
2	677	142.48	-0.189972	-0.18988	-8.39844e-07	1.5947e-07	226090.125	3.34578e-05