File: Raw Electrochem Data/Oligomer 1/Blank electrolyte/DPV_Anodic_Trace.txt
Potential - Start -0.205 V, Stop 1.505 V, Step 0.005 V; Modulation - Amplitude 0.05 V, Time 0.025 s, Interval time 0.05 s
Index	Base.Time (s)	Potential applied (V)	WE(1).Base.Potential (V)	WE(1).Base.Current (A)	WE(1).Pulse.Current (A)	WE(1).δ.Current (A)	WE(1).Base.Power (W)	WE(1).Base.Resistance (Ω)	WE(1).Base.Charge (C)
1	148.696	-0.204926		-3.36914e-07	4.29382e-07	7.66296e-07	6.90114e-08	607971	0
5	148.896	-0.184784		-5.72205e-07	4.15955e-07	9.88159e-07	1.05647e-07	322667	-1.1071e-07
9	149.096	-0.164642		-5.34668e-07	4.63562e-07	9.9823e-07	8.798e-08	307763	-2.21191e-07
13	149.296	-0.144501		-5.08118e-07	5.17273e-07	1.02539e-06	7.33458e-08	284084	-3.25279e-07
17	149.496	-0.124359		-4.9408e-07	5.92041e-07	1.08612e-06	6.14282e-08	251637	-4.25285e-07
21	149.696	-0.104218		-4.98962e-07	7.15027e-07	1.21399e-06	5.20006e-08	208869	-5.24178e-07
25	149.896	-0.0840759		-5.39856e-07	9.33228e-07	1.47308e-06	4.53559e-08	155625	-6.27419e-07
29	150.096	-0.0639343		-6.36902e-07	1.3269e-06	1.96381e-06	4.07393e-08	100431	-7.4398e-07
33	150.296	-0.0437927		-8.19702e-07	1.96686e-06	2.78656e-06	3.57794e-08	53250.2	-8.88107e-07
37	150.496	-0.0236511		-1.07666e-06	2.84332e-06	3.91998e-06	2.53065e-08	21831.1	-1.07712e-06
41	150.696	-0.00350952		-1.29578e-06	3.78754e-06	5.08331e-06	4.4052e-09	2623.65	-1.31645e-06
45	150.896	0.0166321		-1.27655e-06	4.50134e-06	5.77789e-06	-2.12862e-08	-13062.4	-1.57847e-06
49	151.096	0.0367737		-9.42993e-07	4.6814e-06	5.62439e-06	-3.47119e-08	-39035.6	-1.80493e-06
53	151.296	0.0569153		-3.94897e-07	4.27551e-06	4.67041e-06	-2.24878e-08	-144204	-1.94073e-06
57	151.496	0.0770569		1.76697e-07	3.57361e-06	3.39691e-06	1.36319e-08	436614.875	-1.96134e-06
61	151.696	0.0971985		6.04248e-07	2.92175e-06	2.3175e-06	5.87689e-08	160960	-1.88011e-06
65	151.896	0.11734		8.3313e-07	2.4527e-06	1.61957e-06	9.77595e-08	140842	-1.73351e-06
69	152.096	0.137482		9.14612e-07	2.14355e-06	1.22894e-06	1.25687e-07	150250.25	-1.55697e-06
73	152.296	0.157623		9.17969e-07	1.94275e-06	1.02478e-06	1.44693e-07	171709	-1.37296e-06
77	152.496	0.177765		8.90808e-07	1.80573e-06	9.14917e-07	1.58436e-07	199657	-1.19186e-06
81	152.696	0.197906		8.55713e-07	1.70776e-06	8.52051e-07	1.69377e-07	231312	-1.01717e-06
85	152.896	0.218048		8.21533e-07	1.63208e-06	8.10547e-07	1.79109e-07	265379	-8.49487e-07
89	153.096	0.23819		7.91626e-07	1.57135e-06	7.79724e-07	1.88485e-07	300771	-6.88217e-07
93	153.296	0.258331		7.66907e-07	1.52039e-06	7.53479e-07	1.98069e-07	336769	-5.32402e-07
97	153.496	0.278473		7.45239e-07	1.47797e-06	7.32727e-07	2.07506e-07	373628	-3.81226e-07
101	153.696	0.298615		7.26624e-07	1.44043e-06	7.13806e-07	2.17025e-07	411046	-2.34062e-07
105	153.896	0.318756		7.10754e-07	1.40747e-06	6.96716e-07	2.26579e-07	448519	-9.03549e-08
109	154.096	0.338898		6.96716e-07	1.38e-06	6.83289e-07	2.36073e-07	486334	5.03922e-08
113	154.296	0.359039		6.84204e-07	1.35712e-06	6.72913e-07	2.45656e-07	524755	1.88477e-07
117	154.496	0.379181		6.73218e-07	1.33728e-06	6.640625E-07	2.55292e-07	563282	3.24158e-07
121	154.696	0.399323		6.64368e-07	1.31805e-06	6.53687e-07	2.65297e-07	601057	4.57848e-07
125	154.896	0.419464		6.57654e-07	1.29974e-06	6.4209e-07	2.75822e-07	637726.25	5.90004e-07
129	155.096	0.439606		6.53076e-07	1.28235e-06	6.29272e-07	2.87116e-07	673177.625	7.211e-07
133	155.296	0.459747		6.49414e-07	1.2674e-06	6.17981e-07	2.98566e-07	707941.75	8.51364e-07
137	155.496	0.479889		6.44836e-07	1.25458e-06	6.09741e-07	3.0943e-07	744155.25	9.80766e-07
141	155.696	0.500031		6.41174e-07	1.24451e-06	6.03333e-07	3.20587e-07	779819.125	1.10934e-06
145	155.896	0.520172		6.37207e-07	1.23627e-06	5.9906e-07	3.31457e-07	816331	1.23714e-06
149	156.096	0.540314		6.34155e-07	1.22986e-06	5.95703e-07	3.42604e-07	851925	1.36426e-06
153	156.296	0.560455		6.31104e-07	1.2262e-06	5.95093e-07	3.53667e-07	887959	1.49071e-06
157	156.496	0.580597		6.28357e-07	1.22406e-06	5.95703e-07	3.64784e-07	923895.125	1.61665e-06
161	156.696	0.600739		6.25305e-07	1.22406e-06	5.98755e-07	3.75645e-07	960713	1.74204e-06
165	156.896	0.62088		6.23779e-07	1.22681e-06	6.03027e-07	3.87254e-07	995254	1.8669e-06
169	157.096	0.641022		6.21033e-07	1.23077e-06	6.09741e-07	3.98077e-07	1032137.625	1.9914e-06
173	157.296	0.661163		6.18896e-07	1.23688e-06	6.17981e-07	4.09135e-07	1068146	2.11543e-06
177	157.496	0.681305		6.17371e-07	1.24542e-06	6.28052e-07	4.2058e-07	1103460.25	2.2391e-06
181	157.696	0.701447		6.15845e-07	1.25458e-06	6.38733e-07	4.31926e-07	1138850.375	2.36243e-06
185	157.896	0.721588		6.14014e-07	1.26617e-06	6.52161e-07	4.43027e-07	1175099.5	2.48535e-06
189	158.096	0.74173		6.14014e-07	1.27869e-06	6.64673e-07	4.55413e-07	1207952.375	2.60817e-06
193	158.296	0.761871		6.14624e-07	1.29211e-06	6.7749e-07	4.68546e-07	1240317.75	2.73109e-06
197	158.496	0.782013		6.1676e-07	1.30768e-06	6.90918e-07	4.82032e-07	1267194.5	2.85423e-06
201	158.696	0.802155		6.18591e-07	1.32141e-06	7.0282e-07	4.96111e-07	1296497.375	2.97776e-06
205	158.896	0.822296		6.21643e-07	1.33606e-06	7.14417e-07	5.1127e-07	1323024.125	3.10175e-06
209	159.096	0.842438		6.26221e-07	1.35162e-06	7.25403e-07	5.27456e-07	1345029.25	3.22653e-06
213	159.296	0.862579		6.31714e-07	1.36597e-06	7.34253e-07	5.45e-07	1365700.5	3.35228e-06
217	159.496	0.882721		6.38123e-07	1.37848e-06	7.40356e-07	5.63187e-07	1383070.375	3.47924e-06
221	159.696	0.902863		6.46362e-07	1.39038e-06	7.44019e-07	5.83478e-07	1396600.5	3.60757e-06
225	159.896	0.923004		6.55212e-07	1.39954e-06	7.44324e-07	6.04664e-07	1408477	3.73769e-06
229	160.096	0.943146		6.66199e-07	1.40564e-06	7.39441e-07	6.28424e-07	1415941.375	3.8698e-06
233	160.296	0.963287		6.78101e-07	1.40961e-06	7.31506e-07	6.53102e-07	1420342.125	4.00421e-06
237	160.496	0.983429		6.90918e-07	1.40961e-06	7.18689e-07	6.79574e-07	1423586.625	4.14108e-06
241	160.696	1.00357		7.04041e-07	1.40747e-06	7.0343e-07	7.06447e-07	1425227.5	4.28054e-06
245	160.896	1.02371		7.16858e-07	1.40259e-06	6.8573e-07	7.33528e-07	1427416	4.42263e-06
249	161.096	1.04385		7.29065e-07	1.39801e-06	6.68945e-07	7.61148e-07	1431979.875	4.56724e-06
253	161.296	1.064		7.39136e-07	1.39221e-06	6.53076e-07	7.86324e-07	1439306.375	4.71408e-06
257	161.496	1.08414		7.47681e-07	1.38885e-06	6.41174e-07	8.10702e-07	1450204.125	4.86279e-06
261	161.696	1.10428		7.55615e-07	1.38824e-06	6.32629e-07	8.34294e-07	1461227.875	5.01315e-06
265	161.896	1.12442		7.62329e-07	1.38977e-06	6.27441e-07	8.57062e-07	1474779.875	5.16496e-06
269	162.096	1.14456		7.67822e-07	1.39343e-06	6.2561e-07	8.78703e-07	1490461.125	5.31793e-06
273	162.296	1.1647		7.74231e-07	1.39923e-06	6.25e-07	9.01631e-07	1504138.75	5.47211e-06
277	162.496	1.18484		7.80334e-07	1.40564e-06	6.25305e-07	9.24218e-07	1517794.375	5.62759e-06
281	162.696	1.20499		7.87964e-07	1.41235e-06	6.2439e-07	9.49606e-07	1529434.5	5.78444e-06
285	162.896	1.22513		7.95593e-07	1.41937e-06	6.23779e-07	9.74582e-07	1539700.875	5.9428e-06
289	163.096	1.24527		8.03223e-07	1.4267e-06	6.23474e-07	1.00035e-06	1550532	6.10268e-06
293	163.296	1.26541		8.09937e-07	1.43341e-06	6.23474e-07	1.02503e-06	1562547.125	6.26396e-06
297	163.496	1.28555		8.1665e-07	1.44165e-06	6.25e-07	1.04997e-06	1574364.75	6.42661e-06
301	163.696	1.30569		8.22754e-07	1.4502e-06	6.27441e-07	1.07414e-06	1586795.375	6.59055e-06
305	163.896	1.32584		8.29468e-07	1.46179e-06	6.32324e-07	1.10012e-06	1598969.875	6.75574e-06
309	164.096	1.34598		8.36487e-07	1.47552e-06	6.39038e-07	1.12525e-06	1608172.25	6.92233e-06
313	164.296	1.36612		8.44727e-07	1.49139e-06	6.46667e-07	1.15413e-06	1617413.375	7.09047e-06
317	164.496	1.38626		8.54492e-07	1.51001e-06	6.55518e-07	1.18442e-06	1622142.875	7.26041e-06
321	164.696	1.4064		8.65784e-07	1.53046e-06	6.64673e-07	1.21751e-06	1624251	7.43243e-06
325	164.896	1.42654		8.77686e-07	1.55212e-06	6.74438e-07	1.25192e-06	1625173.875	7.60672e-06
329	165.096	1.44669		8.90198e-07	1.57318e-06	6.82983e-07	1.2877e-06	1624957.25	7.7835e-06
333	165.296	1.46683		9.0332e-07	1.59393e-06	6.90613e-07	1.32543e-06	1624324.375	7.96286e-06
337	165.496	1.48697		9.15833e-07	1.61255e-06	6.96716e-07	1.3614e-06	1623125.625	8.14483e-06
340	165.646	1.50208		9.24683e-07	1.62567e-06	7.00989e-07	1.38922e-06	1624752.5	8.28288e-06