File: Raw Electrochem Data/Oligomer 1/Blank electrolyte/DPV_Cathodic_Trace.txt
Potential - Start 1.505 V, Stop -0.205 V, Step -0.005 V; Modulation - Amplitude -0.05 V, Time 0.025 s, Interval time 0.05 s
Index	Base.Time (s)	Potential applied (V)	WE(1).Base.Potential (V)	WE(1).Base.Current (A)	WE(1).Pulse.Current (A)	WE(1).δ.Current (A)	WE(1).Base.Power (W)	WE(1).Base.Resistance (Ω)	WE(1).Base.Charge (C)
1	172.069	1.50497	1.50482	8.3252e-07	3.61023e-07	-4.71497e-07	1.25279e-06	1807551.375	0
5	172.269	1.48483	1.48468	9.67102e-07	3.87878e-07	-5.79224e-07	1.43584e-06	1535184.75	1.9059e-07
9	172.469	1.46469	1.46484	9.40247e-07	3.60107e-07	-5.80139e-07	1.37731e-06	1557935.75	3.81325e-07
13	172.669	1.44455	1.44409	9.14307e-07	3.32642e-07	-5.81665e-07	1.32034e-06	1579439.25	5.66681e-07
17	172.869	1.42441	1.42426	8.91113e-07	3.06091e-07	-5.85022e-07	1.26917e-06	1598287.75	7.47162e-07
21	173.069	1.40427	1.40472	8.70056e-07	2.79846e-07	-5.9021e-07	1.22219e-06	1614521.25	9.23225e-07
25	173.269	1.38412	1.38397	8.5083e-07	2.53601e-07	-5.97229e-07	1.17753e-06	1626614.125	1.09534e-06
29	173.469	1.36398	1.36383	8.3374e-07	2.27661e-07	-6.06079e-07	1.13708e-06	1635798	1.26376e-06
33	173.669	1.34384	1.34308	8.17261e-07	2.02026e-07	-6.15234e-07	1.09765e-06	1643390.625	1.4288e-06
37	173.869	1.3237	1.32355	8.01086e-07	1.76086e-07	-6.25e-07	1.06028e-06	1652190.5	1.59063e-06
41	174.069	1.30356	1.30341	7.85217e-07	1.49841e-07	-6.35376e-07	1.02346e-06	1659930.125	1.74926e-06
45	174.269	1.28342	1.28326	7.69958e-07	1.25427e-07	-6.44531e-07	9.8806e-07	1666666.625	1.90481e-06
49	174.469	1.26328	1.26282	7.55005e-07	1.01318e-07	-6.53687e-07	9.53433e-07	1672595	2.05736e-06
53	174.669	1.24313	1.24298	7.40967e-07	7.90405e-08	-6.61926e-07	9.21008e-07	1677512.5	2.20689e-06
57	174.869	1.22299	1.22314	7.25708e-07	5.7373e-08	-6.68335e-07	8.87646e-07	1685450	2.35355e-06
61	175.069	1.20285	1.2027	7.1228e-07	3.60107e-08	-6.7627e-07	8.56658e-07	1688517.625	2.49738e-06
65	175.269	1.18271	1.18286	6.99768e-07	1.43433e-08	-6.85425e-07	8.27729e-07	1690362	2.63857e-06
69	175.469	1.16257	1.16241	6.89087e-07	-9.15527e-09	-6.98242e-07	8.01005e-07	1686891.125	2.77748e-06
73	175.669	1.14243	1.14288	6.79321e-07	-3.60107e-08	-7.15332e-07	7.76385e-07	1682390	2.91432e-06
77	175.869	1.12228	1.12213	6.71082e-07	-6.53076e-08	-7.36389e-07	7.53042e-07	1672123.75	3.04932e-06
81	176.069	1.10214	1.10199	6.63147e-07	-9.73511e-08	-7.60498e-07	7.30781e-07	1661757.875	3.18273e-06
85	176.269	1.082	1.08215	6.55212e-07	-1.29395e-07	-7.84607e-07	7.0904e-07	1651607	3.3146e-06
89	176.469	1.06186	1.0614	6.46362e-07	-1.59302e-07	-8.05664e-07	6.8605e-07	1642115.25	3.44482e-06
93	176.669	1.04172	1.04187	6.36597e-07	-1.86157e-07	-8.22754e-07	6.63251e-07	1636625.125	3.5732e-06
97	176.869	1.02158	1.02112	6.25916e-07	-2.08435e-07	-8.34351e-07	6.39134e-07	1631399.375	3.69947e-06
101	177.069	1.00143	1.00159	6.14624e-07	-2.26135e-07	-8.40759e-07	6.15599e-07	1629592.875	3.82353e-06
105	177.269	0.981293	0.98114	6.02112e-07	-2.40479e-07	-8.4259e-07	5.90756e-07	1629498.25	3.94521e-06
109	177.469	0.961151	0.961304	5.89905e-07	-2.49634e-07	-8.39539e-07	5.67078e-07	1629591.375	4.0644e-06
113	177.669	0.94101	0.941162	5.77698e-07	-2.56348e-07	-8.34045e-07	5.43707e-07	1629160.125	4.18113e-06
117	177.869	0.920868	0.920715	5.64575e-07	-2.60315e-07	-8.2489e-07	5.19813e-07	1630810.75	4.29533e-06
121	178.069	0.900726	0.900574	5.52368e-07	-2.62756e-07	-8.15125e-07	4.97448e-07	1630386.875	4.40698e-06
125	178.269	0.880585	0.880737	5.39856e-07	-2.63367e-07	-8.03223e-07	4.75471e-07	1631430.25	4.51617e-06
129	178.469	0.860443	0.860901	5.28259e-07	-2.62451e-07	-7.9071e-07	4.54779e-07	1629693.875	4.62296e-06
133	178.669	0.840302	0.840149	5.17578e-07	-2.60315e-07	-7.77893e-07	4.34843e-07	1623231.25	4.72751e-06
137	178.869	0.82016	0.8203125	5.06897e-07	-2.56958e-07	-7.63855e-07	4.15814e-07	1618302.25	4.82995e-06
141	179.069	0.800018	0.800171	4.97742e-07	-2.53906e-07	-7.51648e-07	3.98278e-07	1607602.75	4.93037e-06
145	179.269	0.779877	0.779724	4.8645e-07	-2.50549e-07	-7.37e-07	3.79297e-07	1602885.875	5.02872e-06
149	179.469	0.759735	0.759888	4.7821e-07	-2.45667e-07	-7.23877e-07	3.63386e-07	1589023.625	5.12519e-06
153	179.669	0.739594	0.739532	4.69666e-07	-2.40784e-07	-7.10449e-07	3.47333e-07	1574594	5.21998e-06
157	179.869	0.719452	0.71936	4.62646e-07	-2.36206e-07	-6.98853e-07	3.3281e-07	1554881.25	5.31319e-06
161	180.069	0.69931	0.699188	4.55933e-07	-2.32239e-07	-6.88171e-07	3.18783e-07	1533534.25	5.405e-06
165	180.269	0.679169	0.679169	4.50439e-07	-2.29187e-07	-6.79626e-07	3.05924e-07	1507791.375	5.49564e-06
169	180.469	0.659027	0.658966	4.45862e-07	-2.26135e-07	-6.71997e-07	2.93808e-07	1477960.25	5.58524e-06
173	180.669	0.638885	0.638855	4.41895e-07	-2.24609e-07	-6.66504e-07	2.82307e-07	1445718.25	5.67404e-06
177	180.869	0.618744	0.618713	4.38538e-07	-2.23999e-07	-6.62537e-07	2.71329e-07	1410856	5.76209e-06
181	181.069	0.598602	0.598633	4.36401e-07	-2.24609e-07	-6.61011e-07	2.61244e-07	1371748.25	5.84959e-06
185	181.269	0.578461	0.57843	4.34265e-07	-2.2522e-07	-6.59485e-07	2.51192e-07	1331974.75	5.93667e-06
189	181.469	0.558319	0.558289	4.3335e-07	-2.27051e-07	-6.604e-07	2.41934e-07	1288309.875	6.02344e-06
193	181.669	0.538177	0.538147	4.32434e-07	-2.29797e-07	-6.62231e-07	2.32713e-07	1244460.125	6.10999e-06
197	181.869	0.518036	0.518066	4.32129e-07	-2.33765e-07	-6.65894e-07	2.23871e-07	1198870.125	6.19641e-06
201	182.069	0.497894	0.497925	4.31824e-07	-2.39563e-07	-6.71387e-07	2.15016e-07	1153074.25	6.28284e-06
205	182.269	0.477753	0.477753	4.3335e-07	-2.47498e-07	-6.80847e-07	2.07034e-07	1102464.75	6.36934e-06
209	182.469	0.457611	0.457611	4.3396e-07	-2.55127e-07	-6.89087e-07	1.98585e-07	1054500.75	6.45607e-06
213	182.669	0.437469	0.437439	4.3457e-07	-2.61536e-07	-6.96106e-07	1.90098e-07	1.0066e+06	6.54295e-06
217	182.869	0.417328	0.417297	4.33655e-07	-2.66724e-07	-7.00378e-07	1.80963e-07	962280.125	6.62978e-06
221	183.069	0.397186	0.397217	4.32739e-07	-2.71912e-07	-7.04651e-07	1.71891e-07	917913	6.71635e-06
225	183.269	0.377045	0.377045	4.32434e-07	-2.79541e-07	-7.11975e-07	1.63047e-07	871912.5	6.80288e-06
229	183.469	0.356903	0.356903	4.3457e-07	-2.89307e-07	-7.23877e-07	1.55099e-07	821278.125	6.88963e-06
233	183.669	0.336761	0.336731	4.37012e-07	-3.00903e-07	-7.37915e-07	1.47155e-07	770530.75	6.97678e-06
237	183.869	0.31662	0.31665	4.39758e-07	-3.15857e-07	-7.55615e-07	1.3925e-07	720056	7.06441e-06
241	184.069	0.296478	0.296417	4.44031e-07	-3.33862e-07	-7.77893e-07	1.31618e-07	667560	7.15278e-06
245	184.269	0.276337	0.276306	4.48608e-07	-3.5553e-07	-8.04138e-07	1.23953e-07	615918.375	7.242e-06
249	184.469	0.256195	0.256195	4.55017e-07	-3.83606e-07	-8.38623e-07	1.16573e-07	563045	7.33227e-06
253	184.669	0.236053	0.235992	4.64478e-07	-4.23889e-07	-8.88367e-07	1.09613e-07	508081.5	7.42415e-06
257	184.869	0.215912	0.215912	4.80042e-07	-4.89502e-07	-9.69543e-07	1.03647e-07	449778	7.51842e-06
261	185.069	0.19577	0.195831	5.10559e-07	-6.04858e-07	-1.11542e-06	9.99834e-08	383562	7.61715e-06
265	185.269	0.175629	0.175598	5.69763e-07	-8.1665e-07	-1.38641e-06	1.00049e-07	308195	7.72451e-06
269	185.469	0.155487	0.155487	6.82068e-07	-1.19934e-06	-1.88141e-06	1.06053e-07	227964	7.84864e-06
273	185.669	0.135345	0.135406	8.73108e-07	-1.82495e-06	-2.69806e-06	1.18224e-07	155086	8.00272e-06
277	185.869	0.115204	0.115204	1.13861e-06	-2.70111e-06	-3.83972e-06	1.31172e-07	101179	8.20312e-06
281	186.069	0.0950623	0.0950928	1.38275e-06	-3.68042e-06	-5.06317e-06	1.3149e-07	68770.7	8.45693e-06
285	186.269	0.0749207	0.0749207	1.4267e-06	-4.47388e-06	-5.90057e-06	1.06889e-07	52513.4	8.74284e-06
289	186.469	0.0547791	0.054718	1.14929e-06	-4.76379e-06	-5.91309e-06	6.2887e-08	47610.2	9.00529e-06
293	186.669	0.0346375	0.0347168	6.28967e-07	-4.41895e-06	-5.04791e-06	2.18357e-08	55196.5	9.18551e-06
297	186.869	0.0144958	0.0145996	5.06592e-08	-3.71094e-06	-3.7616e-06	7.39604e-10	288193	9.25282e-06
301	187.069	-0.00564575	-0.00559082	-4.03748e-07	-3.02979e-06	-2.62604e-06	2.25728e-09	13847.3	9.21474e-06
305	187.269	-0.0257874	-0.0256897	-6.48804e-07	-2.53693e-06	-1.88812e-06	1.66676e-08	39595.5	9.10635e-06
309	187.469	-0.045929	-0.0457916	-7.30896e-07	-2.22443e-06	-1.49353e-06	3.34689e-08	62651.4	8.96644e-06
313	187.669	-0.0660706	-0.0660706	-7.23877e-07	-2.03369e-06	-1.30981e-06	4.7827e-08	91273.2	8.82019e-06
317	187.869	-0.0862122	-0.0861206	-6.83289e-07	-1.91589e-06	-1.2326e-06	5.88452e-08	126038	8.67921e-06
321	188.069	-0.106354	-0.106293	-6.34155e-07	-1.84204e-06	-1.20789e-06	6.74061e-08	167613	8.54748e-06
325	188.269	-0.126495	-0.126465	-5.87769e-07	-1.7926e-06	-1.20483e-06	7.43321e-08	215161	8.42538e-06
329	188.469	-0.146637	-0.146515	-5.4718e-07	-1.76117e-06	-1.21399e-06	8.017e-08	267764	8.31202e-06
333	188.669	-0.166779	-0.166687	-5.13306e-07	-1.74194e-06	-1.22864e-06	8.55614e-08	324732	8.2061e-06
337	188.869	-0.18692	-0.186768	-4.86755e-07	-1.73096e-06	-1.2442e-06	9.09101e-08	383699	8.10618e-06
340	189.019	-0.202026	-0.201935	-4.70276e-07	-1.72668e-06	-1.25641e-06	9.49651e-08	429396.5	8.03445e-06