File: Raw Electrochem Data/Oligomer 1/Blank electrolyte/OCP.txt
Potential - OCP -0.00348358 V
Time (s)	WE(1).Potential (V)
15.6955	-0.00143127
15.7955	-0.00144348
15.8955	-0.00145569
15.9955	-0.0014679
16.0955	-0.00148315
16.1955	-0.00149536
16.2955	-0.00150757
16.3955	-0.00152283
16.4955	-0.00153503
16.5955	-0.00154724
16.6955	-0.00155945
16.7955	-0.00157471
16.8955	-0.00158691
16.9955	-0.00159912
17.0955	-0.00161438
17.1955	-0.00162659
17.2955	-0.00163879
17.3955	-0.001651
17.4955	-0.00166321
17.5955	-0.00167847
17.6955	-0.00169067
17.7955	-0.00170288
17.8955	-0.00171814
17.9955	-0.00173035
18.0955	-0.00174255
18.1955	-0.00175476
18.2955	-0.00176697
18.3955	-0.00177917
18.4955	-0.00178833
18.5955	-0.00180054
18.6955	-0.0018158
18.7955	-0.001828
18.8955	-0.00184021
18.9955	-0.00184937
19.0955	-0.00186157
19.1955	-0.00187073
19.2955	-0.00188293
19.3955	-0.00189209
19.4955	-0.00190125
19.5955	-0.0019104
19.6955	-0.00191956
19.7955	-0.00193481
19.8955	-0.00194092
19.9955	-0.001953125
20.0955	-0.00196228
20.1955	-0.00197144
20.2955	-0.00198059
20.3955	-0.00198975
20.4955	-0.0019989
20.5955	-0.00200806
20.6955	-0.00202026
20.7955	-0.00202942
20.8955	-0.00203857
20.9955	-0.00204773
21.0955	-0.00205688
21.1955	-0.00206604
21.2955	-0.0020752
21.3955	-0.00208435
21.4955	-0.00209351
21.5955	-0.00209961
21.6955	-0.00210876
21.7955	-0.00211792
21.8955	-0.00213013
21.9955	-0.00213928
22.0955	-0.00214844
22.1955	-0.00215759
22.2955	-0.00216675
22.3955	-0.0021759
22.4955	-0.00218506
22.5955	-0.00219421
22.6955	-0.00220642
22.7955	-0.00221558
22.8955	-0.00222168
22.9955	-0.00223083
23.0955	-0.00224304
23.1955	-0.00224915
23.2955	-0.00226135
23.3955	-0.00226746
23.4955	-0.00227661
23.5955	-0.00228577
23.6955	-0.00229492
23.7955	-0.00230408
23.8955	-0.00231323
23.9955	-0.00231934
24.0955	-0.00232849
24.1955	-0.00233765
24.2955	-0.00234985
24.3955	-0.00235901
24.4955	-0.00236816
24.5955	-0.00237732
24.6955	-0.00238342
24.7955	-0.00239258
24.8955	-0.00240173
24.9955	-0.00241089
25.0955	-0.00242004
25.1955	-0.0024292
25.2955	-0.00243835
25.3955	-0.00244446
25.4955	-0.00245667
25.5955	-0.00246582
25.6955	-0.00247498
25.7955	-0.00248413
25.8955	-0.00249023
25.9955	-0.00249939
26.0955	-0.00250549
26.1955	-0.0025177
26.2955	-0.0025238
26.3955	-0.00253906
26.4955	-0.00254517
26.5955	-0.00255432
26.6955	-0.00256348
26.7955	-0.00257263
26.8955	-0.00258179
26.9955	-0.00258789
27.0955	-0.00259705
27.1955	-0.0026062
27.2955	-0.00261536
27.3955	-0.00262451
27.4955	-0.00263062
27.5955	-0.00263977
27.6955	-0.00264893
27.7955	-0.00265503
27.8955	-0.00266418
27.9955	-0.00267029
28.0955	-0.00267944
28.1955	-0.00268555
28.2955	-0.0026947
28.3955	-0.00270081
28.4955	-0.00270996
28.5955	-0.00271606
28.6955	-0.00272522
28.7955	-0.00273132
28.8955	-0.00273743
28.9955	-0.00274658
29.0955	-0.00275269
29.1955	-0.00276184
29.2955	-0.002771
29.3955	-0.0027771
29.4955	-0.0027832
29.5955	-0.00279236
29.6955	-0.00279846
29.7955	-0.00280457
29.8955	-0.00281067
29.9955	-0.00281982
30.0955	-0.00282593
30.1955	-0.00283203
30.2955	-0.00284119
30.3955	-0.00284729
30.4955	-0.00285339
30.5955	-0.0028595
30.6955	-0.0028656
30.7955	-0.00287476
30.8955	-0.00288086
30.9955	-0.00288696
31.0955	-0.00289307
31.1955	-0.00289917
31.2955	-0.00290527
31.3955	-0.00291138
31.4955	-0.00291748
31.5955	-0.00292358
31.6955	-0.00292969
31.7955	-0.00293579
31.8955	-0.00294189
31.9955	-0.002948
32.0955	-0.0029541
32.1955	-0.00296021
32.2955	-0.00296326
32.3955	-0.00296936
32.4955	-0.00297546
32.5955	-0.00298157
32.6955	-0.00298767
32.7955	-0.00299377
32.8955	-0.00299988
32.9955	-0.00300598
33.0955	-0.00301208
33.1955	-0.00301819
33.2955	-0.00302429
33.3955	-0.0030304
33.4955	-0.0030365
33.5955	-0.0030426
33.6955	-0.00304871
33.7955	-0.00305481
33.8955	-0.00306091
33.9955	-0.00306702
34.0955	-0.00307312
34.1955	-0.00307922
34.2955	-0.00308533
34.3955	-0.00309143
34.4955	-0.00309753
34.5955	-0.00310364
34.6955	-0.00310669
34.7955	-0.00311279
34.8955	-0.0031189
34.9955	-0.003125
35.0955	-0.00312805
35.1955	-0.00313416
35.2955	-0.00314026
35.3955	-0.00314331
35.4955	-0.00314636
35.5955	-0.00315247
35.6955	-0.00315552
35.7955	-0.00316162
35.8955	-0.00316467
35.9955	-0.00316772
36.0955	-0.00317383
36.1955	-0.00317688
36.2955	-0.00317993
36.3955	-0.00318298
36.4955	-0.00318909
36.5955	-0.00319214
36.6955	-0.00319519
36.7955	-0.00319519
36.8955	-0.00319824
36.9955	-0.00320129
37.0955	-0.00320435
37.1955	-0.0032074
37.2955	-0.00321045
37.3955	-0.00321045
37.4955	-0.0032135
37.5955	-0.00321655
37.6955	-0.0032196
37.7955	-0.0032196
37.8955	-0.00322266
37.9955	-0.00322571
38.0955	-0.00322876
38.1955	-0.00322876
38.2955	-0.00323181
38.3955	-0.00323486
38.4955	-0.00323792
38.5955	-0.00323792
38.6955	-0.00324402
38.7955	-0.00324402
38.8955	-0.00324707
38.9955	-0.00325012
39.0955	-0.00325317
39.1955	-0.00325623
39.2955	-0.00325928
39.3955	-0.00326538
39.4955	-0.00326843
39.5955	-0.00327454
39.6955	-0.00327759
39.7955	-0.00328369
39.8955	-0.00328979
39.9955	-0.0032959
40.0955	-0.003302
40.1955	-0.00330811
40.2955	-0.00331421
40.3955	-0.00332031
40.4955	-0.00332947
40.5955	-0.00333557
40.6955	-0.00334167
40.7955	-0.00334778
40.8955	-0.00335388
40.9955	-0.00335693
41.0955	-0.00336609
41.1955	-0.00338135
41.2955	-0.00338745
41.3955	-0.00339355
41.4955	-0.00339966
41.5955	-0.00340576
41.6955	-0.00340881
41.7955	-0.00341797
41.8955	-0.00342407
41.9955	-0.00343018
42.0955	-0.00343933
42.1955	-0.00344543
42.2955	-0.00345154
42.3955	-0.00345764
42.4955	-0.00346069
42.5955	-0.0034668
42.6955	-0.0034729
42.7955	-0.003479
42.8955	-0.00348206
42.9955	-0.00349121
43.0955	-0.00349426
43.1955	-0.00350037
43.2955	-0.00350647
43.3955	-0.00350952
43.4955	-0.00351257
43.5955	-0.00351868
43.6955	-0.00352783
43.7955	-0.00353394
43.8955	-0.00353699
43.9955	-0.00354309
44.0955	-0.00354614
44.1955	-0.00355225
44.2955	-0.0035553
44.3955	-0.0035553
44.4955	-0.0035614
44.5955	-0.0035675
44.6955	-0.00357056
44.7955	-0.00357361
44.8955	-0.00357666
44.9955	-0.00358276
45.0955	-0.00358582
45.1955	-0.00359192
45.2955	-0.00359802
45.3955	-0.00359802
45.4955	-0.00360107
45.5955	-0.00360107